{
  "wavelengths": [
    599.37,
    599.497,
    599.624,
    599.751,
    599.878,
    600.005,
    600.132,
    600.258,
    600.385,
    600.512,
    600.639,
    600.766,
    600.893,
    601.019,
    601.146,
    601.273,
    601.4,
    601.527,
    601.654,
    601.78,
    601.907,
    602.034,
    602.161,
    602.288,
    602.414,
    602.541,
    602.668,
    602.795,
    602.922,
    603.049,
    603.175,
    603.302,
    603.429,
    603.556,
    603.683,
    603.809,
    603.936,
    604.063,
    604.19,
    604.316,
    604.443,
    604.57,
    604.697,
    604.824,
    604.95,
    605.077,
    605.204,
    605.331,
    605.457,
    605.584,
    605.711,
    605.838,
    605.965,
    606.091,
    606.218,
    606.345,
    606.472,
    606.598,
    606.725,
    606.852,
    606.979,
    607.105,
    607.232,
    607.359,
    607.486,
    607.612,
    607.739,
    607.866,
    607.992,
    608.119,
    608.246,
    608.373,
    608.499,
    608.626,
    608.753,
    608.88,
    609.006,
    609.133,
    609.26,
    609.386,
    609.513,
    609.64,
    609.766,
    609.893,
    610.02,
    610.147,
    610.273,
    610.4,
    610.527,
    610.653,
    610.78,
    610.907,
    611.033,
    611.16,
    611.287,
    611.413,
    611.54,
    611.667,
    611.793,
    611.92,
    612.047,
    612.173,
    612.3,
    612.427,
    612.553,
    612.68,
    612.807,
    612.933,
    613.06,
    613.187,
    613.313,
    613.44,
    613.567,
    613.693,
    613.82,
    613.947,
    614.073,
    614.2,
    614.326,
    614.453,
    614.58,
    614.706,
    614.833,
    614.96,
    615.086,
    615.213,
    615.339,
    615.466,
    615.593,
    615.719,
    615.846,
    615.972,
    616.099,
    616.226,
    616.352,
    616.479,
    616.605,
    616.732,
    616.859,
    616.985,
    617.112,
    617.238,
    617.365,
    617.491,
    617.618,
    617.745,
    617.871,
    617.998,
    618.124,
    618.251,
    618.377,
    618.504,
    618.631,
    618.757,
    618.884,
    619.01,
    619.137,
    619.263,
    619.39,
    619.516,
    619.643,
    619.769,
    619.896,
    620.023,
    620.149,
    620.276,
    620.402,
    620.529,
    620.655,
    620.782,
    620.908,
    621.035,
    621.161,
    621.288,
    621.414,
    621.541,
    621.667,
    621.794,
    621.92,
    622.047,
    622.173,
    622.3,
    622.426,
    622.553,
    622.679,
    622.806,
    622.932,
    623.059,
    623.185,
    623.312,
    623.438,
    623.564,
    623.691,
    623.817,
    623.944,
    624.07,
    624.197,
    624.323,
    624.45,
    624.576,
    624.703,
    624.829,
    624.955,
    625.082,
    625.208,
    625.335,
    625.461,
    625.588,
    625.714,
    625.84,
    625.967,
    626.093,
    626.22,
    626.346,
    626.473,
    626.599,
    626.725,
    626.852,
    626.978,
    627.105,
    627.231,
    627.357,
    627.484,
    627.61,
    627.737,
    627.863,
    627.989,
    628.116,
    628.242,
    628.369,
    628.495,
    628.621,
    628.748,
    628.874,
    629.0,
    629.127,
    629.253,
    629.379,
    629.506,
    629.632,
    629.759,
    629.885,
    630.011,
    630.138,
    630.264,
    630.39,
    630.517,
    630.643,
    630.769,
    630.896,
    631.022,
    631.148,
    631.275,
    631.401,
    631.527,
    631.654,
    631.78,
    631.906,
    632.032,
    632.159,
    632.285,
    632.411,
    632.538,
    632.664,
    632.79,
    632.917,
    633.043,
    633.169,
    633.295,
    633.422,
    633.548,
    633.674,
    633.801,
    633.927,
    634.053,
    634.179,
    634.306,
    634.432,
    634.558,
    634.684,
    634.811,
    634.937,
    635.063,
    635.189,
    635.316,
    635.442,
    635.568,
    635.694,
    635.821,
    635.947,
    636.073,
    636.199,
    636.325,
    636.452,
    636.578,
    636.704,
    636.83,
    636.957,
    637.083,
    637.209,
    637.335,
    637.461,
    637.588,
    637.714,
    637.84,
    637.966,
    638.092,
    638.218,
    638.345,
    638.471,
    638.597,
    638.723,
    638.849,
    638.976,
    639.102,
    639.228,
    639.354,
    639.48,
    639.606,
    639.732,
    639.859,
    639.985,
    640.111,
    640.237,
    640.363,
    640.489,
    640.615,
    640.742,
    640.868,
    640.994,
    641.12,
    641.246,
    641.372,
    641.498,
    641.624,
    641.751,
    641.877,
    642.003,
    642.129,
    642.255,
    642.381,
    642.507,
    642.633,
    642.759,
    642.885,
    643.011,
    643.138,
    643.264,
    643.39,
    643.516,
    643.642,
    643.768,
    643.894,
    644.02,
    644.146,
    644.272,
    644.398,
    644.524,
    644.65,
    644.776,
    644.902,
    645.028,
    645.154,
    645.281,
    645.407,
    645.533,
    645.659,
    645.785,
    645.911,
    646.037,
    646.163,
    646.289,
    646.415,
    646.541,
    646.667,
    646.793,
    646.919,
    647.045,
    647.171,
    647.297,
    647.423,
    647.549,
    647.675,
    647.801,
    647.927,
    648.053,
    648.179,
    648.305,
    648.43,
    648.556,
    648.682,
    648.808,
    648.934,
    649.06,
    649.186,
    649.312,
    649.438,
    649.564,
    649.69,
    649.816,
    649.942,
    650.068,
    650.194,
    650.32,
    650.446,
    650.571,
    650.697,
    650.823,
    650.949,
    651.075,
    651.201,
    651.327,
    651.453,
    651.579,
    651.705,
    651.83,
    651.956,
    652.082,
    652.208,
    652.334,
    652.46,
    652.586,
    652.712,
    652.837,
    652.963,
    653.089,
    653.215,
    653.341,
    653.467,
    653.593,
    653.718,
    653.844,
    653.97,
    654.096,
    654.222,
    654.348,
    654.473,
    654.599,
    654.725,
    654.851,
    654.977,
    655.102,
    655.228,
    655.354,
    655.48,
    655.606,
    655.731,
    655.857,
    655.983,
    656.109,
    656.235,
    656.36,
    656.486,
    656.612,
    656.738,
    656.864,
    656.989,
    657.115,
    657.241,
    657.367,
    657.492,
    657.618,
    657.744,
    657.87,
    657.995,
    658.121,
    658.247,
    658.373,
    658.498,
    658.624,
    658.75,
    658.875,
    659.001,
    659.127,
    659.253,
    659.378,
    659.504,
    659.63,
    659.755,
    659.881,
    660.007,
    660.132,
    660.258,
    660.384,
    660.51,
    660.635,
    660.761,
    660.887,
    661.012,
    661.138,
    661.264,
    661.389,
    661.515,
    661.641,
    661.766,
    661.892,
    662.017,
    662.143,
    662.269,
    662.394,
    662.52,
    662.646,
    662.771,
    662.897,
    663.023,
    663.148,
    663.274,
    663.399,
    663.525,
    663.651,
    663.776,
    663.902,
    664.027,
    664.153,
    664.279,
    664.404,
    664.53,
    664.655,
    664.781,
    664.906,
    665.032,
    665.158,
    665.283,
    665.409,
    665.534,
    665.66,
    665.785,
    665.911,
    666.036,
    666.162,
    666.288,
    666.413,
    666.539,
    666.664,
    666.79,
    666.915,
    667.041,
    667.166,
    667.292,
    667.417,
    667.543,
    667.668,
    667.794,
    667.919,
    668.045,
    668.17,
    668.296,
    668.421,
    668.547,
    668.672,
    668.798,
    668.923,
    669.049,
    669.174,
    669.3,
    669.425,
    669.55,
    669.676,
    669.801,
    669.927,
    670.052,
    670.178,
    670.303,
    670.429,
    670.554,
    670.679,
    670.805,
    670.93,
    671.056,
    671.181,
    671.306,
    671.432,
    671.557,
    671.683,
    671.808,
    671.933,
    672.059,
    672.184,
    672.31,
    672.435,
    672.56,
    672.686,
    672.811,
    672.936,
    673.062,
    673.187,
    673.313,
    673.438,
    673.563,
    673.689,
    673.814,
    673.939,
    674.065,
    674.19,
    674.315,
    674.441,
    674.566,
    674.691,
    674.817,
    674.942,
    675.067,
    675.193,
    675.318,
    675.443,
    675.568,
    675.694,
    675.819,
    675.944,
    676.07,
    676.195,
    676.32,
    676.445,
    676.571,
    676.696,
    676.821,
    676.946,
    677.072,
    677.197,
    677.322,
    677.447,
    677.573,
    677.698,
    677.823,
    677.948,
    678.074,
    678.199,
    678.324,
    678.449,
    678.575,
    678.7,
    678.825,
    678.95,
    679.075,
    679.201,
    679.326,
    679.451,
    679.576,
    679.701,
    679.826,
    679.952,
    680.077,
    680.202,
    680.327,
    680.452,
    680.577,
    680.703,
    680.828,
    680.953,
    681.078,
    681.203,
    681.328,
    681.453,
    681.579,
    681.704,
    681.829,
    681.954,
    682.079,
    682.204,
    682.329,
    682.454,
    682.58,
    682.705,
    682.83,
    682.955,
    683.08,
    683.205,
    683.33,
    683.455,
    683.58,
    683.705,
    683.83,
    683.955,
    684.08,
    684.206,
    684.331,
    684.456,
    684.581,
    684.706,
    684.831,
    684.956,
    685.081,
    685.206,
    685.331,
    685.456,
    685.581,
    685.706,
    685.831,
    685.956,
    686.081,
    686.206,
    686.331,
    686.456,
    686.581,
    686.706,
    686.831,
    686.956,
    687.081,
    687.206,
    687.331,
    687.456,
    687.581,
    687.706,
    687.831,
    687.956,
    688.081,
    688.205,
    688.33,
    688.455,
    688.58,
    688.705,
    688.83,
    688.955,
    689.08,
    689.205,
    689.33,
    689.455,
    689.58,
    689.704,
    689.829,
    689.954,
    690.079,
    690.204,
    690.329,
    690.454,
    690.579,
    690.704,
    690.828,
    690.953,
    691.078,
    691.203,
    691.328,
    691.453,
    691.578,
    691.702,
    691.827,
    691.952,
    692.077,
    692.202,
    692.327,
    692.451,
    692.576,
    692.701,
    692.826,
    692.951,
    693.075,
    693.2,
    693.325,
    693.45,
    693.575,
    693.699,
    693.824,
    693.949,
    694.074,
    694.198,
    694.323,
    694.448,
    694.573,
    694.697,
    694.822,
    694.947,
    695.072,
    695.196,
    695.321,
    695.446,
    695.571,
    695.695,
    695.82,
    695.945,
    696.069,
    696.194,
    696.319,
    696.443,
    696.568,
    696.693,
    696.818,
    696.942,
    697.067,
    697.192,
    697.316,
    697.441,
    697.566,
    697.69,
    697.815,
    697.94,
    698.064,
    698.189,
    698.313,
    698.438,
    698.563,
    698.687,
    698.812,
    698.937,
    699.061,
    699.186,
    699.31,
    699.435,
    699.56,
    699.684,
    699.809,
    699.933,
    700.058,
    700.183,
    700.307,
    700.432,
    700.556,
    700.681,
    700.805,
    700.93,
    701.055,
    701.179,
    701.304,
    701.428,
    701.553,
    701.677,
    701.802,
    701.926,
    702.051,
    702.175,
    702.3,
    702.424,
    702.549,
    702.673,
    702.798,
    702.922,
    703.047,
    703.171,
    703.296,
    703.42,
    703.545,
    703.669,
    703.794,
    703.918,
    704.043,
    704.167,
    704.292,
    704.416,
    704.54,
    704.665,
    704.789,
    704.914,
    705.038,
    705.163,
    705.287,
    705.411,
    705.536,
    705.66,
    705.785,
    705.909,
    706.033,
    706.158,
    706.282,
    706.407,
    706.531,
    706.655,
    706.78,
    706.904,
    707.029,
    707.153,
    707.277,
    707.402,
    707.526,
    707.65,
    707.775,
    707.899,
    708.023,
    708.148,
    708.272,
    708.396,
    708.521,
    708.645,
    708.769,
    708.893,
    709.018,
    709.142,
    709.266,
    709.391,
    709.515,
    709.639,
    709.763,
    709.888,
    710.012,
    710.136,
    710.261,
    710.385,
    710.509,
    710.633,
    710.758,
    710.882,
    711.006,
    711.13,
    711.254,
    711.379,
    711.503,
    711.627,
    711.751,
    711.876,
    712.0,
    712.124,
    712.248,
    712.372,
    712.497,
    712.621,
    712.745,
    712.869,
    712.993,
    713.117,
    713.242,
    713.366,
    713.49,
    713.614,
    713.738,
    713.862,
    713.986,
    714.111,
    714.235,
    714.359,
    714.483,
    714.607,
    714.731,
    714.855,
    714.979,
    715.103,
    715.228,
    715.352,
    715.476,
    715.6,
    715.724,
    715.848,
    715.972,
    716.096,
    716.22,
    716.344,
    716.468,
    716.592,
    716.716,
    716.84,
    716.964,
    717.088,
    717.212,
    717.336,
    717.46,
    717.584,
    717.709,
    717.833,
    717.957,
    718.081,
    718.204,
    718.328,
    718.452,
    718.576,
    718.7,
    718.824,
    718.948,
    719.072,
    719.196,
    719.32,
    719.444,
    719.568,
    719.692,
    719.816,
    719.94,
    720.064,
    720.188,
    720.312,
    720.436,
    720.56,
    720.683,
    720.807,
    720.931,
    721.055,
    721.179,
    721.303,
    721.427,
    721.551,
    721.675,
    721.798,
    721.922,
    722.046,
    722.17,
    722.294,
    722.418,
    722.542,
    722.665,
    722.789,
    722.913,
    723.037,
    723.161,
    723.284,
    723.408,
    723.532,
    723.656,
    723.78,
    723.903,
    724.027,
    724.151,
    724.275,
    724.399,
    724.522,
    724.646,
    724.77,
    724.894,
    725.017,
    725.141,
    725.265,
    725.389,
    725.512,
    725.636,
    725.76,
    725.884,
    726.007,
    726.131,
    726.255,
    726.378,
    726.502,
    726.626,
    726.75,
    726.873,
    726.997,
    727.121,
    727.114,
    727.239,
    727.364,
    727.489,
    727.614,
    727.738,
    727.863,
    727.988,
    728.113,
    728.238,
    728.363,
    728.488,
    728.613,
    728.738,
    728.863,
    728.988,
    729.112,
    729.237,
    729.362,
    729.487,
    729.612,
    729.737,
    729.862,
    729.987,
    730.112,
    730.236,
    730.361,
    730.486,
    730.611,
    730.736,
    730.861,
    730.986,
    731.11,
    731.235,
    731.36,
    731.485,
    731.61,
    731.735,
    731.86,
    731.984,
    732.109,
    732.234,
    732.359,
    732.484,
    732.609,
    732.733,
    732.858,
    732.983,
    733.108,
    733.233,
    733.358,
    733.482,
    733.607,
    733.732,
    733.857,
    733.982,
    734.106,
    734.231,
    734.356,
    734.481,
    734.606,
    734.73,
    734.855,
    734.98,
    735.105,
    735.23,
    735.354,
    735.479,
    735.604,
    735.729,
    735.853,
    735.978,
    736.103,
    736.228,
    736.352,
    736.477,
    736.602,
    736.727,
    736.851,
    736.976,
    737.101,
    737.226,
    737.35,
    737.475,
    737.6,
    737.725,
    737.849,
    737.974,
    738.099,
    738.224,
    738.348,
    738.473,
    738.598,
    738.722,
    738.847,
    738.972,
    739.097,
    739.221,
    739.346,
    739.471,
    739.595,
    739.72,
    739.845,
    739.969,
    740.094,
    740.219,
    740.343,
    740.468,
    740.593,
    740.717,
    740.842,
    740.967,
    741.091,
    741.216,
    741.341,
    741.465,
    741.59,
    741.715,
    741.839,
    741.964,
    742.089,
    742.213,
    742.338,
    742.463,
    742.587,
    742.712,
    742.836,
    742.961,
    743.086,
    743.21,
    743.335,
    743.46,
    743.584,
    743.709,
    743.833,
    743.958,
    744.083,
    744.207,
    744.332,
    744.456,
    744.581,
    744.706,
    744.83,
    744.955,
    745.079,
    745.204,
    745.329,
    745.453,
    745.578,
    745.702,
    745.827,
    745.951,
    746.076,
    746.2,
    746.325,
    746.45,
    746.574,
    746.699,
    746.823,
    746.948,
    747.072,
    747.197,
    747.321,
    747.446,
    747.57,
    747.695,
    747.82,
    747.944,
    748.069,
    748.193,
    748.318,
    748.442,
    748.567,
    748.691,
    748.816,
    748.94,
    749.065,
    749.189,
    749.314,
    749.438,
    749.563,
    749.687,
    749.812,
    749.936,
    750.06,
    750.185,
    750.309,
    750.434,
    750.558,
    750.683,
    750.807,
    750.932,
    751.056,
    751.181,
    751.305,
    751.43,
    751.554,
    751.678,
    751.803,
    751.927,
    752.052,
    752.176,
    752.301,
    752.425,
    752.549,
    752.674,
    752.798,
    752.923,
    753.047,
    753.171,
    753.296,
    753.42,
    753.545,
    753.669,
    753.793,
    753.918,
    754.042,
    754.167,
    754.291,
    754.415,
    754.54,
    754.664,
    754.789,
    754.913,
    755.037,
    755.162,
    755.286,
    755.41,
    755.535,
    755.659,
    755.783,
    755.908,
    756.032,
    756.156,
    756.281,
    756.405,
    756.529,
    756.654,
    756.778,
    756.902,
    757.027,
    757.151,
    757.275,
    757.4,
    757.524,
    757.648,
    757.773,
    757.897,
    758.021,
    758.145,
    758.27,
    758.394,
    758.518,
    758.643,
    758.767,
    758.891,
    759.015,
    759.14,
    759.264,
    759.388,
    759.512,
    759.637,
    759.761,
    759.885,
    760.009,
    760.134,
    760.258,
    760.382,
    760.506,
    760.631,
    760.755,
    760.879,
    761.003,
    761.128,
    761.252,
    761.376,
    761.5,
    761.624,
    761.749,
    761.873,
    761.997,
    762.121,
    762.245,
    762.37,
    762.494,
    762.618,
    762.742,
    762.866,
    762.991,
    763.115,
    763.239,
    763.363,
    763.487,
    763.611,
    763.736,
    763.86,
    763.984,
    764.108,
    764.232,
    764.356,
    764.48,
    764.605,
    764.729,
    764.853,
    764.977,
    765.101,
    765.225,
    765.349,
    765.474,
    765.598,
    765.722,
    765.846,
    765.97,
    766.094,
    766.218,
    766.342,
    766.466,
    766.59,
    766.715,
    766.839,
    766.963,
    767.087,
    767.211,
    767.335,
    767.459,
    767.583,
    767.707,
    767.831,
    767.955,
    768.079,
    768.203,
    768.327,
    768.451,
    768.575,
    768.7,
    768.824,
    768.948,
    769.072,
    769.196,
    769.32,
    769.444,
    769.568,
    769.692,
    769.816,
    769.94,
    770.064,
    770.188,
    770.312,
    770.436,
    770.56,
    770.684,
    770.808,
    770.932,
    771.056,
    771.18,
    771.304,
    771.428,
    771.552,
    771.675,
    771.799,
    771.923,
    772.047,
    772.171,
    772.295,
    772.419,
    772.543,
    772.667,
    772.791,
    772.915,
    773.039,
    773.163,
    773.287,
    773.411,
    773.535,
    773.658,
    773.782,
    773.906,
    774.03,
    774.154,
    774.278,
    774.402,
    774.526,
    774.65,
    774.774,
    774.897,
    775.021,
    775.145,
    775.269,
    775.393,
    775.517,
    775.641,
    775.764,
    775.888,
    776.012,
    776.136,
    776.26,
    776.384,
    776.508,
    776.631,
    776.755,
    776.879,
    777.003,
    777.127,
    777.25,
    777.374,
    777.498,
    777.622,
    777.746,
    777.87,
    777.993,
    778.117,
    778.241,
    778.365,
    778.488,
    778.612,
    778.736,
    778.86,
    778.984,
    779.107,
    779.231,
    779.355,
    779.479,
    779.602,
    779.726,
    779.85,
    779.974,
    780.097,
    780.221,
    780.345,
    780.469,
    780.592,
    780.716,
    780.84,
    780.963,
    781.087,
    781.211,
    781.335,
    781.458,
    781.582,
    781.706,
    781.829,
    781.953,
    782.077,
    782.2,
    782.324,
    782.448,
    782.571,
    782.695,
    782.819,
    782.942,
    783.066,
    783.19,
    783.313,
    783.437,
    783.561,
    783.684,
    783.808,
    783.932,
    784.055,
    784.179,
    784.303,
    784.426,
    784.55,
    784.673,
    784.797,
    784.921,
    785.044,
    785.168,
    785.291,
    785.415,
    785.539,
    785.662,
    785.786,
    785.909,
    786.033,
    786.157,
    786.28,
    786.404,
    786.527,
    786.651,
    786.774,
    786.898,
    787.021,
    787.145,
    787.269,
    787.392,
    787.516,
    787.639,
    787.763,
    787.886,
    788.01,
    788.133,
    788.257,
    788.38,
    788.504,
    788.627,
    788.751,
    788.874,
    788.998,
    789.121,
    789.245,
    789.368,
    789.492,
    789.615,
    789.739,
    789.862,
    789.986,
    790.109,
    790.233,
    790.356,
    790.479,
    790.603,
    790.726,
    790.85,
    790.973,
    791.097,
    791.22,
    791.343,
    791.467,
    791.59,
    791.714,
    791.837,
    791.961,
    792.084,
    792.207,
    792.331,
    792.454,
    792.578,
    792.701,
    792.824,
    792.948,
    793.071,
    793.194,
    793.318,
    793.441,
    793.565,
    793.688,
    793.811,
    793.935,
    794.058,
    794.181,
    794.305,
    794.428,
    794.551,
    794.675,
    794.798,
    794.921,
    795.045,
    795.168,
    795.291,
    795.415,
    795.538,
    795.661,
    795.784,
    795.908,
    796.031,
    796.154,
    796.278,
    796.401,
    796.524,
    796.647,
    796.771,
    796.894,
    797.017,
    797.14,
    797.264,
    797.387,
    797.51,
    797.633,
    797.757,
    797.88,
    798.003,
    798.126,
    798.25,
    798.373,
    798.496,
    798.619,
    798.742,
    798.866,
    798.989,
    799.112,
    799.235,
    799.358,
    799.482,
    799.605,
    799.728,
    799.851,
    799.974,
    800.097,
    800.221,
    800.344,
    800.467,
    800.59,
    800.713,
    800.836,
    800.959,
    801.083,
    801.206,
    801.329,
    801.452,
    801.575,
    801.698,
    801.821,
    801.944,
    802.068,
    802.191,
    802.314,
    802.437,
    802.56,
    802.683,
    802.806,
    802.929,
    803.052,
    803.175,
    803.298,
    803.421,
    803.545,
    803.668,
    803.791,
    803.914,
    804.037,
    804.16,
    804.283,
    804.406,
    804.529,
    804.652,
    804.775,
    804.898,
    805.021,
    805.144,
    805.267,
    805.39,
    805.513,
    805.636,
    805.759,
    805.882,
    806.005,
    806.128,
    806.251,
    806.374,
    806.497,
    806.62,
    806.743,
    806.866,
    806.989,
    807.112,
    807.234,
    807.357,
    807.48,
    807.603,
    807.726,
    807.849,
    807.972,
    808.095,
    808.218,
    808.341,
    808.464,
    808.587,
    808.709,
    808.832,
    808.955,
    809.078,
    809.201,
    809.324,
    809.447,
    809.57,
    809.693,
    809.815,
    809.938,
    810.061,
    810.184,
    810.307,
    810.43,
    810.552,
    810.675,
    810.798,
    810.921,
    811.044,
    811.167,
    811.289,
    811.412,
    811.535,
    811.658,
    811.781,
    811.903,
    812.026,
    812.149,
    812.272,
    812.395,
    812.517,
    812.64,
    812.763,
    812.886,
    813.008,
    813.131,
    813.254,
    813.377,
    813.499,
    813.622,
    813.745,
    813.868,
    813.99,
    814.113,
    814.236,
    814.358,
    814.481,
    814.604,
    814.727,
    814.849,
    814.972,
    815.095,
    815.217,
    815.34,
    815.463,
    815.585,
    815.708,
    815.831,
    815.953,
    816.076,
    816.199,
    816.321,
    816.444,
    816.567,
    816.689,
    816.812,
    816.934,
    817.057,
    817.18,
    817.302,
    817.425,
    817.547,
    817.67,
    817.793,
    817.915,
    818.038,
    818.16,
    818.283,
    818.406,
    818.528,
    818.651,
    818.773,
    818.896,
    819.018,
    819.141,
    819.264,
    819.386,
    819.509,
    819.631,
    819.754,
    819.876,
    819.999,
    820.121,
    820.244,
    820.366,
    820.489,
    820.611,
    820.734,
    820.856,
    820.979,
    821.101,
    821.224,
    821.346,
    821.469,
    821.591,
    821.714,
    821.836,
    821.958,
    822.081,
    822.203,
    822.326,
    822.448,
    822.571,
    822.693,
    822.816,
    822.938,
    823.06,
    823.183,
    823.305,
    823.428,
    823.55,
    823.672,
    823.795,
    823.917,
    824.04,
    824.162,
    824.284,
    824.407,
    824.529,
    824.651,
    824.774,
    824.896,
    825.019,
    825.141,
    825.263,
    825.386,
    825.508,
    825.63,
    825.753,
    825.875,
    825.997,
    826.119,
    826.242,
    826.364,
    826.486,
    826.609,
    826.731,
    826.853,
    826.976,
    827.098,
    827.22,
    827.342,
    827.465,
    827.587,
    827.709,
    827.831,
    827.954,
    828.076,
    828.198,
    828.32,
    828.443,
    828.565,
    828.687,
    828.809,
    828.931,
    829.054,
    829.176,
    829.298,
    829.42,
    829.542,
    829.665,
    829.787,
    829.909,
    830.031,
    830.153,
    830.275,
    830.398,
    830.52,
    830.642,
    830.764,
    830.886,
    831.008,
    831.13,
    831.253,
    831.375,
    831.497,
    831.619,
    831.741,
    831.863,
    831.985,
    832.107,
    832.229,
    832.352,
    832.474,
    832.596,
    832.718,
    832.84,
    832.962,
    833.084,
    833.206,
    833.328,
    833.45,
    833.572,
    833.694,
    833.816,
    833.938,
    834.06,
    834.182,
    834.304,
    834.426,
    834.548,
    834.67,
    834.792,
    834.914,
    835.036,
    835.158,
    835.28,
    835.402,
    835.524,
    835.646,
    835.768,
    835.89,
    836.012,
    836.134,
    836.256,
    836.378,
    836.5,
    836.622,
    836.744,
    836.866,
    836.988,
    837.11,
    837.231,
    837.353,
    837.475,
    837.597,
    837.719,
    837.841,
    837.963,
    838.085,
    838.207,
    838.328,
    838.45,
    838.572,
    838.694,
    838.816,
    838.938,
    839.06,
    839.181,
    839.303,
    839.425,
    839.547,
    839.669,
    839.79,
    839.912,
    840.034,
    840.156,
    840.278,
    840.399,
    840.521,
    840.643,
    840.765,
    840.887,
    841.008,
    841.13,
    841.252,
    841.374,
    841.495,
    841.617,
    841.739,
    841.861,
    841.982,
    842.104,
    842.226,
    842.347,
    842.469,
    842.591,
    842.713,
    842.834,
    842.956,
    843.078,
    843.199,
    843.321,
    843.443,
    843.564,
    843.686,
    843.808,
    843.929,
    844.051,
    844.173,
    844.294,
    844.416,
    844.538,
    844.659,
    844.781,
    844.902,
    845.024,
    845.146,
    845.267,
    845.389,
    845.511,
    845.632,
    845.754,
    845.875,
    845.997,
    846.118,
    846.24,
    846.362,
    846.483,
    846.605,
    846.726,
    846.848,
    846.969,
    847.091,
    847.212,
    847.334,
    847.455,
    847.577,
    847.698,
    847.82,
    847.941,
    848.063,
    848.184,
    848.306,
    848.427,
    848.549,
    848.67,
    848.792,
    848.913,
    849.035,
    849.156,
    849.278,
    849.399,
    849.521,
    849.642,
    849.763,
    849.885,
    850.006,
    850.128,
    850.249,
    850.37,
    850.492,
    850.613,
    850.735,
    850.856,
    850.977,
    851.099,
    851.22,
    851.342,
    851.463,
    851.584,
    851.706,
    851.827,
    851.948,
    852.07,
    852.052,
    852.174,
    852.297,
    852.42,
    852.543,
    852.666,
    852.789,
    852.911,
    853.034,
    853.157,
    853.28,
    853.403,
    853.525,
    853.648,
    853.771,
    853.894,
    854.017,
    854.139,
    854.262,
    854.385,
    854.508,
    854.631,
    854.753,
    854.876,
    854.999,
    855.122,
    855.244,
    855.367,
    855.49,
    855.613,
    855.735,
    855.858,
    855.981,
    856.104,
    856.226,
    856.349,
    856.472,
    856.595,
    856.717,
    856.84,
    856.963,
    857.086,
    857.208,
    857.331,
    857.454,
    857.576,
    857.699,
    857.822,
    857.945,
    858.067,
    858.19,
    858.313,
    858.435,
    858.558,
    858.681,
    858.803,
    858.926,
    859.049,
    859.171,
    859.294,
    859.417,
    859.54,
    859.662,
    859.785,
    859.908,
    860.03,
    860.153,
    860.275,
    860.398,
    860.521,
    860.643,
    860.766,
    860.889,
    861.011,
    861.134,
    861.257,
    861.379,
    861.502,
    861.624,
    861.747,
    861.87,
    861.992,
    862.115,
    862.238,
    862.36,
    862.483,
    862.605,
    862.728,
    862.851,
    862.973,
    863.096,
    863.218,
    863.341,
    863.463,
    863.586,
    863.709,
    863.831,
    863.954,
    864.076,
    864.199,
    864.321,
    864.444,
    864.567,
    864.689,
    864.812,
    864.934,
    865.057,
    865.179,
    865.302,
    865.424,
    865.547,
    865.669,
    865.792,
    865.914,
    866.037,
    866.159,
    866.282,
    866.404,
    866.527,
    866.649,
    866.772,
    866.894,
    867.017,
    867.139,
    867.262,
    867.384,
    867.507,
    867.629,
    867.752,
    867.874,
    867.997,
    868.119,
    868.242,
    868.364,
    868.487,
    868.609,
    868.732,
    868.854,
    868.976,
    869.099,
    869.221,
    869.344,
    869.466,
    869.589,
    869.711,
    869.833,
    869.956,
    870.078,
    870.201,
    870.323,
    870.446,
    870.568,
    870.69,
    870.813,
    870.935,
    871.058,
    871.18,
    871.302,
    871.425,
    871.547,
    871.669,
    871.792,
    871.914,
    872.037,
    872.159,
    872.281,
    872.404,
    872.526,
    872.648,
    872.771,
    872.893,
    873.015,
    873.138,
    873.26,
    873.382,
    873.505,
    873.627,
    873.749,
    873.872,
    873.994,
    874.116,
    874.239,
    874.361,
    874.483,
    874.606,
    874.728,
    874.85,
    874.973,
    875.095,
    875.217,
    875.339,
    875.462,
    875.584,
    875.706,
    875.828,
    875.951,
    876.073,
    876.195,
    876.318,
    876.44,
    876.562,
    876.684,
    876.807,
    876.929,
    877.051,
    877.173,
    877.295,
    877.418,
    877.54,
    877.662,
    877.784,
    877.907,
    878.029,
    878.151,
    878.273,
    878.395,
    878.518,
    878.64,
    878.762,
    878.884,
    879.006,
    879.129,
    879.251,
    879.373,
    879.495,
    879.617,
    879.739,
    879.862,
    879.984,
    880.106,
    880.228,
    880.35,
    880.472,
    880.595,
    880.717,
    880.839,
    880.961,
    881.083,
    881.205,
    881.327,
    881.45,
    881.572,
    881.694,
    881.816,
    881.938,
    882.06,
    882.182,
    882.304,
    882.426,
    882.548,
    882.671,
    882.793,
    882.915,
    883.037,
    883.159,
    883.281,
    883.403,
    883.525,
    883.647,
    883.769,
    883.891,
    884.013,
    884.135,
    884.257,
    884.38,
    884.502,
    884.624,
    884.746,
    884.868,
    884.99,
    885.112,
    885.234,
    885.356,
    885.478,
    885.6,
    885.722,
    885.844,
    885.966,
    886.088,
    886.21,
    886.332,
    886.454,
    886.576,
    886.698,
    886.82,
    886.942,
    887.064,
    887.186,
    887.308,
    887.43,
    887.551,
    887.673,
    887.795,
    887.917,
    888.039,
    888.161,
    888.283,
    888.405,
    888.527,
    888.649,
    888.771,
    888.893,
    889.015,
    889.137,
    889.258,
    889.38,
    889.502,
    889.624,
    889.746,
    889.868,
    889.99,
    890.112,
    890.234,
    890.356,
    890.477,
    890.599,
    890.721,
    890.843,
    890.965,
    891.087,
    891.209,
    891.33,
    891.452,
    891.574,
    891.696,
    891.818,
    891.94,
    892.061,
    892.183,
    892.305,
    892.427,
    892.549,
    892.671,
    892.792,
    892.914,
    893.036,
    893.158,
    893.28,
    893.401,
    893.523,
    893.645,
    893.767,
    893.888,
    894.01,
    894.132,
    894.254,
    894.375,
    894.497,
    894.619,
    894.741,
    894.862,
    894.984,
    895.106,
    895.228,
    895.349,
    895.471,
    895.593,
    895.715,
    895.836,
    895.958,
    896.08,
    896.201,
    896.323,
    896.445,
    896.567,
    896.688,
    896.81,
    896.932,
    897.053,
    897.175,
    897.297,
    897.418,
    897.54,
    897.662,
    897.783,
    897.905,
    898.027,
    898.148,
    898.27,
    898.392,
    898.513,
    898.635,
    898.756,
    898.878,
    899.0,
    899.121,
    899.243,
    899.365,
    899.486,
    899.608,
    899.729,
    899.851,
    899.973,
    900.094,
    900.216,
    900.337,
    900.459,
    900.581,
    900.702,
    900.824,
    900.945,
    901.067,
    901.188,
    901.31,
    901.431,
    901.553,
    901.675,
    901.796,
    901.918,
    902.039,
    902.161,
    902.282,
    902.404,
    902.525,
    902.647,
    902.768,
    902.89,
    903.011,
    903.133,
    903.254,
    903.376,
    903.497,
    903.619,
    903.74,
    903.862,
    903.983,
    904.105,
    904.226,
    904.348,
    904.469,
    904.59,
    904.712,
    904.833,
    904.955,
    905.076,
    905.198,
    905.319,
    905.441,
    905.562,
    905.683,
    905.805,
    905.926,
    906.048,
    906.169,
    906.29,
    906.412,
    906.533,
    906.655,
    906.776,
    906.897,
    907.019,
    907.14,
    907.261,
    907.383,
    907.504,
    907.626,
    907.747,
    907.868,
    907.99,
    908.111,
    908.232,
    908.354,
    908.475,
    908.596,
    908.718,
    908.839,
    908.96,
    909.082,
    909.203,
    909.324,
    909.445,
    909.567,
    909.688,
    909.809,
    909.931,
    910.052,
    910.173,
    910.294,
    910.416,
    910.537,
    910.658,
    910.78,
    910.901,
    911.022,
    911.143,
    911.265,
    911.386,
    911.507,
    911.628,
    911.749,
    911.871,
    911.992,
    912.113,
    912.234,
    912.356,
    912.477,
    912.598,
    912.719,
    912.84,
    912.961,
    913.083,
    913.204,
    913.325,
    913.446,
    913.567,
    913.689,
    913.81,
    913.931,
    914.052,
    914.173,
    914.294,
    914.415,
    914.537,
    914.658,
    914.779,
    914.9,
    915.021,
    915.142,
    915.263,
    915.384,
    915.506,
    915.627,
    915.748,
    915.869,
    915.99,
    916.111,
    916.232,
    916.353,
    916.474,
    916.595,
    916.716,
    916.837,
    916.958,
    917.079,
    917.201,
    917.322,
    917.443,
    917.564,
    917.685,
    917.806,
    917.927,
    918.048,
    918.169,
    918.29,
    918.411,
    918.532,
    918.653,
    918.774,
    918.895,
    919.016,
    919.137,
    919.258,
    919.379,
    919.5,
    919.621,
    919.742,
    919.863,
    919.984,
    920.104,
    920.225,
    920.346,
    920.467,
    920.588,
    920.709,
    920.83,
    920.951,
    921.072,
    921.193,
    921.314,
    921.435,
    921.556,
    921.676,
    921.797,
    921.918,
    922.039,
    922.16,
    922.281,
    922.402,
    922.523,
    922.643,
    922.764,
    922.885,
    923.006,
    923.127,
    923.248,
    923.369,
    923.489,
    923.61,
    923.731,
    923.852,
    923.973,
    924.094,
    924.214,
    924.335,
    924.456,
    924.577,
    924.698,
    924.818,
    924.939,
    925.06,
    925.181,
    925.301,
    925.422,
    925.543,
    925.664,
    925.784,
    925.905,
    926.026,
    926.147,
    926.267,
    926.388,
    926.509,
    926.63,
    926.75,
    926.871,
    926.992,
    927.112,
    927.233,
    927.354,
    927.475,
    927.595,
    927.716,
    927.837,
    927.957,
    928.078,
    928.199,
    928.319,
    928.44,
    928.561,
    928.681,
    928.802,
    928.923,
    929.043,
    929.164,
    929.285,
    929.405,
    929.526,
    929.646,
    929.767,
    929.888,
    930.008,
    930.129,
    930.249,
    930.37,
    930.491,
    930.611,
    930.732,
    930.852,
    930.973,
    931.093,
    931.214,
    931.335,
    931.455,
    931.576,
    931.696,
    931.817,
    931.937,
    932.058,
    932.178,
    932.299,
    932.419,
    932.54,
    932.66,
    932.781,
    932.901,
    933.022,
    933.142,
    933.263,
    933.383,
    933.504,
    933.624,
    933.745,
    933.865,
    933.986,
    934.106,
    934.227,
    934.347,
    934.468,
    934.588,
    934.708,
    934.829,
    934.949,
    935.07,
    935.19,
    935.311,
    935.431,
    935.551,
    935.672,
    935.792,
    935.913,
    936.033,
    936.153,
    936.274,
    936.394,
    936.514,
    936.635,
    936.755,
    936.876,
    936.996,
    937.116,
    937.237,
    937.357,
    937.477,
    937.598,
    937.718,
    937.838,
    937.959,
    938.079,
    938.199,
    938.319,
    938.44,
    938.56,
    938.68,
    938.801,
    938.921,
    939.041,
    939.161,
    939.282,
    939.402,
    939.522,
    939.643,
    939.763,
    939.883,
    940.003,
    940.124,
    940.244,
    940.364,
    940.484,
    940.604,
    940.725,
    940.845,
    940.965,
    941.085,
    941.205,
    941.326,
    941.446,
    941.566,
    941.686,
    941.806,
    941.927,
    942.047,
    942.167,
    942.287,
    942.407,
    942.527,
    942.647,
    942.768,
    942.888,
    943.008,
    943.128,
    943.248,
    943.368,
    943.488,
    943.608,
    943.728,
    943.849,
    943.969,
    944.089,
    944.209,
    944.329,
    944.449,
    944.569,
    944.689,
    944.809,
    944.929,
    945.049,
    945.169,
    945.289,
    945.409,
    945.529,
    945.649,
    945.769,
    945.889,
    946.01,
    946.13,
    946.25,
    946.37,
    946.49,
    946.609,
    946.729,
    946.849,
    946.969,
    947.089,
    947.209,
    947.329,
    947.449,
    947.569,
    947.689,
    947.809,
    947.929,
    948.049,
    948.169,
    948.289,
    948.409,
    948.529,
    948.649,
    948.768,
    948.888,
    949.008,
    949.128,
    949.248,
    949.368,
    949.488,
    949.608,
    949.728,
    949.847,
    949.967,
    950.087,
    950.207,
    950.327,
    950.447,
    950.567,
    950.686,
    950.806,
    950.926,
    951.046,
    951.166,
    951.285,
    951.405,
    951.525,
    951.645,
    951.765,
    951.884,
    952.004,
    952.124,
    952.244,
    952.363,
    952.483,
    952.603,
    952.723,
    952.842,
    952.962,
    953.082,
    953.202,
    953.321,
    953.441,
    953.561,
    953.681,
    953.8,
    953.92,
    954.04,
    954.159,
    954.279,
    954.399,
    954.518,
    954.638,
    954.758,
    954.877,
    954.997,
    955.117,
    955.236,
    955.356,
    955.476,
    955.595,
    955.715,
    955.835,
    955.954,
    956.074,
    956.193,
    956.313,
    956.433,
    956.552,
    956.672,
    956.791,
    956.911,
    957.03,
    957.15,
    957.27,
    957.389,
    957.509,
    957.628,
    957.748,
    957.867,
    957.987,
    958.106,
    958.226,
    958.345,
    958.465,
    958.585,
    958.704,
    958.824,
    958.943,
    959.063,
    959.182,
    959.302,
    959.421,
    959.54,
    959.66,
    959.779,
    959.899,
    960.018,
    960.138,
    960.257,
    960.377,
    960.496,
    960.615,
    960.735,
    960.854,
    960.974,
    961.093,
    961.213,
    961.332,
    961.451,
    961.571,
    961.69,
    961.81,
    961.929,
    962.048,
    962.168,
    962.287,
    962.406,
    962.526,
    962.645,
    962.764,
    962.884,
    963.003,
    963.122,
    963.242,
    963.361,
    963.48,
    963.6,
    963.719,
    963.838,
    963.957,
    964.077,
    964.196,
    964.315,
    964.435,
    964.554,
    964.673,
    964.792,
    964.912,
    965.031,
    965.15,
    965.269,
    965.389,
    965.508,
    965.627,
    965.746,
    965.865,
    965.985,
    966.104,
    966.223,
    966.342,
    966.461,
    966.581,
    966.7,
    966.819,
    966.938,
    967.057,
    967.176,
    967.296,
    967.415,
    967.534,
    967.653,
    967.772,
    967.891,
    968.01,
    968.129,
    968.249,
    968.368,
    968.487,
    968.606,
    968.725,
    968.844,
    968.963,
    969.082,
    969.201,
    969.32,
    969.439,
    969.558,
    969.677,
    969.797,
    969.916,
    970.035,
    970.154,
    970.273,
    970.392,
    970.511,
    970.63,
    970.749,
    970.868,
    970.987,
    971.106,
    971.225,
    971.344,
    971.463,
    971.582,
    971.701,
    971.819,
    971.938,
    972.057,
    972.176,
    972.295,
    972.414,
    972.533,
    972.652,
    972.771,
    972.89,
    973.009,
    973.128,
    973.247,
    973.365,
    973.484,
    973.603,
    973.722,
    973.841,
    973.96,
    974.079,
    974.197,
    974.316,
    974.435,
    974.554,
    974.673,
    974.792,
    974.91,
    975.029,
    975.148,
    975.267
  ],
  "wavelengths-units": "nm",
  "counts": [
    597.0,
    600.0,
    597.0,
    599.0,
    597.0,
    598.0,
    597.0,
    600.0,
    598.0,
    600.0,
    598.0,
    597.0,
    596.0,
    600.0,
    599.0,
    597.0,
    596.0,
    598.0,
    598.0,
    596.0,
    599.0,
    600.0,
    596.0,
    599.0,
    628.0,
    672.0,
    663.0,
    689.0,
    704.0,
    633.0,
    621.0,
    599.0,
    596.0,
    597.0,
    598.0,
    597.0,
    597.0,
    598.0,
    599.0,
    598.0,
    598.0,
    596.0,
    596.0,
    598.0,
    596.0,
    597.0,
    599.0,
    598.0,
    598.0,
    598.0,
    596.0,
    599.0,
    599.0,
    599.0,
    597.0,
    597.0,
    599.0,
    597.0,
    597.0,
    596.0,
    598.0,
    596.0,
    596.0,
    598.0,
    597.0,
    597.0,
    597.0,
    598.0,
    600.0,
    598.0,
    598.0,
    597.0,
    598.0,
    600.0,
    601.0,
    598.0,
    598.0,
    599.0,
    597.0,
    597.0,
    598.0,
    603.0,
    597.0,
    599.0,
    597.0,
    598.0,
    597.0,
    597.0,
    598.0,
    600.0,
    598.0,
    599.0,
    598.0,
    600.0,
    598.0,
    598.0,
    597.0,
    599.0,
    598.0,
    599.0,
    599.0,
    598.0,
    598.0,
    600.0,
    598.0,
    599.0,
    598.0,
    598.0,
    598.0,
    598.0,
    599.0,
    600.0,
    598.0,
    608.0,
    598.0,
    598.0,
    600.0,
    598.0,
    598.0,
    599.0,
    598.0,
    598.0,
    600.0,
    598.0,
    598.0,
    599.0,
    600.0,
    598.0,
    600.0,
    598.0,
    599.0,
    598.0,
    598.0,
    598.0,
    599.0,
    600.0,
    598.0,
    597.0,
    598.0,
    598.0,
    598.0,
    598.0,
    599.0,
    598.0,
    598.0,
    599.0,
    600.0,
    600.0,
    597.0,
    599.0,
    598.0,
    600.0,
    600.0,
    599.0,
    598.0,
    602.0,
    601.0,
    598.0,
    598.0,
    600.0,
    598.0,
    600.0,
    601.0,
    599.0,
    600.0,
    598.0,
    599.0,
    598.0,
    598.0,
    599.0,
    600.0,
    599.0,
    598.0,
    599.0,
    600.0,
    599.0,
    598.0,
    599.0,
    598.0,
    597.0,
    599.0,
    598.0,
    597.0,
    598.0,
    600.0,
    599.0,
    599.0,
    599.0,
    598.0,
    600.0,
    599.0,
    598.0,
    598.0,
    598.0,
    600.0,
    599.0,
    599.0,
    598.0,
    597.0,
    599.0,
    598.0,
    599.0,
    600.0,
    600.0,
    598.0,
    598.0,
    601.0,
    599.0,
    597.0,
    600.0,
    598.0,
    597.0,
    598.0,
    599.0,
    600.0,
    598.0,
    599.0,
    598.0,
    598.0,
    599.0,
    599.0,
    599.0,
    598.0,
    597.0,
    599.0,
    599.0,
    599.0,
    599.0,
    598.0,
    601.0,
    598.0,
    602.0,
    598.0,
    598.0,
    599.0,
    598.0,
    598.0,
    600.0,
    599.0,
    599.0,
    600.0,
    599.0,
    598.0,
    599.0,
    599.0,
    599.0,
    599.0,
    599.0,
    598.0,
    601.0,
    598.0,
    598.0,
    599.0,
    599.0,
    598.0,
    598.0,
    596.0,
    598.0,
    598.0,
    598.0,
    598.0,
    599.0,
    598.0,
    599.0,
    599.0,
    599.0,
    599.0,
    599.0,
    600.0,
    599.0,
    598.0,
    600.0,
    600.0,
    600.0,
    602.0,
    598.0,
    600.0,
    599.0,
    600.0,
    599.0,
    600.0,
    602.0,
    603.0,
    607.0,
    600.0,
    602.0,
    600.0,
    601.0,
    600.0,
    600.0,
    603.0,
    601.0,
    600.0,
    601.0,
    601.0,
    600.0,
    602.0,
    600.0,
    602.0,
    601.0,
    601.0,
    601.0,
    600.0,
    602.0,
    600.0,
    602.0,
    600.0,
    603.0,
    602.0,
    601.0,
    604.0,
    602.0,
    603.0,
    603.0,
    604.0,
    604.0,
    604.0,
    606.0,
    606.0,
    606.0,
    607.0,
    607.0,
    608.0,
    610.0,
    606.0,
    609.0,
    609.0,
    608.0,
    610.0,
    607.0,
    609.0,
    611.0,
    611.0,
    612.0,
    613.0,
    614.0,
    615.0,
    615.0,
    616.0,
    617.0,
    618.0,
    619.0,
    620.0,
    623.0,
    621.0,
    624.0,
    624.0,
    627.0,
    628.0,
    630.0,
    631.0,
    631.0,
    632.0,
    638.0,
    636.0,
    639.0,
    638.0,
    640.0,
    641.0,
    643.0,
    648.0,
    649.0,
    652.0,
    650.0,
    652.0,
    652.0,
    651.0,
    655.0,
    657.0,
    660.0,
    660.0,
    661.0,
    660.0,
    663.0,
    664.0,
    665.0,
    662.0,
    668.0,
    664.0,
    664.0,
    665.0,
    665.0,
    665.0,
    665.0,
    664.0,
    666.0,
    666.0,
    669.0,
    668.0,
    666.0,
    668.0,
    668.0,
    666.0,
    672.0,
    670.0,
    673.0,
    671.0,
    670.0,
    676.0,
    673.0,
    674.0,
    669.0,
    672.0,
    671.0,
    670.0,
    669.0,
    671.0,
    672.0,
    675.0,
    674.0,
    676.0,
    673.0,
    677.0,
    671.0,
    677.0,
    675.0,
    675.0,
    678.0,
    680.0,
    677.0,
    679.0,
    680.0,
    678.0,
    682.0,
    679.0,
    685.0,
    683.0,
    679.0,
    681.0,
    683.0,
    684.0,
    684.0,
    684.0,
    687.0,
    692.0,
    689.0,
    691.0,
    692.0,
    689.0,
    691.0,
    694.0,
    694.0,
    693.0,
    701.0,
    696.0,
    698.0,
    701.0,
    702.0,
    706.0,
    706.0,
    706.0,
    713.0,
    714.0,
    711.0,
    714.0,
    720.0,
    717.0,
    723.0,
    716.0,
    721.0,
    724.0,
    722.0,
    727.0,
    735.0,
    734.0,
    738.0,
    741.0,
    743.0,
    753.0,
    752.0,
    766.0,
    764.0,
    761.0,
    767.0,
    768.0,
    766.0,
    768.0,
    775.0,
    782.0,
    778.0,
    773.0,
    776.0,
    783.0,
    780.0,
    783.0,
    786.0,
    790.0,
    789.0,
    786.0,
    790.0,
    789.0,
    792.0,
    792.0,
    792.0,
    787.0,
    790.0,
    793.0,
    794.0,
    795.0,
    793.0,
    792.0,
    793.0,
    794.0,
    792.0,
    791.0,
    789.0,
    798.0,
    791.0,
    793.0,
    794.0,
    794.0,
    797.0,
    794.0,
    795.0,
    794.0,
    799.0,
    796.0,
    792.0,
    788.0,
    791.0,
    791.0,
    792.0,
    789.0,
    793.0,
    792.0,
    794.0,
    796.0,
    794.0,
    795.0,
    799.0,
    797.0,
    805.0,
    798.0,
    794.0,
    800.0,
    799.0,
    798.0,
    792.0,
    797.0,
    797.0,
    798.0,
    802.0,
    805.0,
    803.0,
    803.0,
    806.0,
    808.0,
    807.0,
    809.0,
    808.0,
    805.0,
    800.0,
    802.0,
    804.0,
    803.0,
    802.0,
    802.0,
    804.0,
    802.0,
    798.0,
    799.0,
    800.0,
    808.0,
    803.0,
    804.0,
    807.0,
    805.0,
    809.0,
    810.0,
    807.0,
    815.0,
    810.0,
    817.0,
    816.0,
    812.0,
    815.0,
    809.0,
    809.0,
    814.0,
    810.0,
    813.0,
    815.0,
    811.0,
    813.0,
    815.0,
    814.0,
    816.0,
    822.0,
    821.0,
    815.0,
    813.0,
    821.0,
    824.0,
    821.0,
    828.0,
    827.0,
    824.0,
    826.0,
    828.0,
    826.0,
    828.0,
    829.0,
    831.0,
    829.0,
    825.0,
    827.0,
    829.0,
    836.0,
    833.0,
    833.0,
    838.0,
    831.0,
    831.0,
    827.0,
    829.0,
    835.0,
    834.0,
    832.0,
    834.0,
    835.0,
    834.0,
    833.0,
    832.0,
    834.0,
    831.0,
    842.0,
    837.0,
    834.0,
    832.0,
    837.0,
    839.0,
    841.0,
    839.0,
    847.0,
    843.0,
    843.0,
    839.0,
    843.0,
    848.0,
    848.0,
    851.0,
    844.0,
    849.0,
    853.0,
    848.0,
    851.0,
    851.0,
    849.0,
    858.0,
    856.0,
    852.0,
    860.0,
    856.0,
    852.0,
    853.0,
    853.0,
    860.0,
    853.0,
    859.0,
    853.0,
    857.0,
    860.0,
    861.0,
    859.0,
    858.0,
    855.0,
    864.0,
    854.0,
    862.0,
    853.0,
    860.0,
    870.0,
    863.0,
    863.0,
    862.0,
    861.0,
    869.0,
    865.0,
    864.0,
    869.0,
    869.0,
    867.0,
    864.0,
    870.0,
    867.0,
    863.0,
    870.0,
    876.0,
    871.0,
    872.0,
    873.0,
    872.0,
    877.0,
    863.0,
    868.0,
    863.0,
    865.0,
    871.0,
    871.0,
    867.0,
    892.0,
    876.0,
    870.0,
    868.0,
    866.0,
    874.0,
    873.0,
    869.0,
    878.0,
    876.0,
    875.0,
    876.0,
    873.0,
    880.0,
    876.0,
    880.0,
    877.0,
    879.0,
    877.0,
    884.0,
    878.0,
    880.0,
    876.0,
    878.0,
    881.0,
    878.0,
    884.0,
    877.0,
    879.0,
    878.0,
    878.0,
    876.0,
    874.0,
    877.0,
    882.0,
    884.0,
    877.0,
    869.0,
    873.0,
    872.0,
    865.0,
    874.0,
    870.0,
    868.0,
    870.0,
    872.0,
    874.0,
    869.0,
    870.0,
    868.0,
    874.0,
    873.0,
    867.0,
    868.0,
    870.0,
    874.0,
    880.0,
    874.0,
    872.0,
    876.0,
    872.0,
    871.0,
    870.0,
    869.0,
    866.0,
    866.0,
    865.0,
    863.0,
    864.0,
    864.0,
    865.0,
    861.0,
    865.0,
    865.0,
    861.0,
    857.0,
    854.0,
    858.0,
    860.0,
    856.0,
    857.0,
    857.0,
    858.0,
    860.0,
    862.0,
    864.0,
    867.0,
    864.0,
    864.0,
    860.0,
    862.0,
    863.0,
    861.0,
    863.0,
    868.0,
    868.0,
    863.0,
    861.0,
    866.0,
    868.0,
    866.0,
    863.0,
    866.0,
    862.0,
    862.0,
    859.0,
    857.0,
    858.0,
    859.0,
    862.0,
    860.0,
    858.0,
    852.0,
    851.0,
    855.0,
    852.0,
    843.0,
    846.0,
    850.0,
    848.0,
    848.0,
    852.0,
    850.0,
    849.0,
    848.0,
    849.0,
    852.0,
    853.0,
    849.0,
    856.0,
    861.0,
    868.0,
    871.0,
    862.0,
    869.0,
    872.0,
    867.0,
    865.0,
    874.0,
    874.0,
    872.0,
    878.0,
    884.0,
    884.0,
    880.0,
    879.0,
    878.0,
    880.0,
    876.0,
    879.0,
    875.0,
    876.0,
    881.0,
    881.0,
    884.0,
    884.0,
    873.0,
    872.0,
    872.0,
    871.0,
    875.0,
    878.0,
    875.0,
    875.0,
    873.0,
    873.0,
    876.0,
    874.0,
    877.0,
    872.0,
    877.0,
    869.0,
    877.0,
    877.0,
    873.0,
    871.0,
    879.0,
    884.0,
    882.0,
    882.0,
    878.0,
    874.0,
    883.0,
    879.0,
    876.0,
    874.0,
    875.0,
    875.0,
    867.0,
    868.0,
    869.0,
    878.0,
    871.0,
    872.0,
    858.0,
    862.0,
    869.0,
    861.0,
    853.0,
    856.0,
    865.0,
    863.0,
    854.0,
    860.0,
    858.0,
    857.0,
    860.0,
    854.0,
    857.0,
    858.0,
    851.0,
    859.0,
    857.0,
    860.0,
    860.0,
    861.0,
    859.0,
    857.0,
    858.0,
    867.0,
    866.0,
    858.0,
    862.0,
    863.0,
    862.0,
    864.0,
    865.0,
    859.0,
    858.0,
    857.0,
    860.0,
    863.0,
    853.0,
    859.0,
    866.0,
    860.0,
    861.0,
    863.0,
    860.0,
    861.0,
    859.0,
    862.0,
    865.0,
    853.0,
    863.0,
    865.0,
    860.0,
    857.0,
    867.0,
    865.0,
    863.0,
    868.0,
    860.0,
    852.0,
    858.0,
    858.0,
    857.0,
    857.0,
    848.0,
    851.0,
    848.0,
    849.0,
    841.0,
    839.0,
    844.0,
    842.0,
    847.0,
    844.0,
    845.0,
    843.0,
    836.0,
    839.0,
    843.0,
    842.0,
    847.0,
    843.0,
    842.0,
    846.0,
    851.0,
    845.0,
    842.0,
    846.0,
    845.0,
    849.0,
    845.0,
    848.0,
    853.0,
    850.0,
    850.0,
    854.0,
    861.0,
    856.0,
    861.0,
    861.0,
    858.0,
    859.0,
    855.0,
    851.0,
    850.0,
    856.0,
    850.0,
    849.0,
    843.0,
    845.0,
    841.0,
    840.0,
    840.0,
    846.0,
    836.0,
    835.0,
    826.0,
    829.0,
    824.0,
    826.0,
    821.0,
    830.0,
    828.0,
    834.0,
    829.0,
    843.0,
    846.0,
    838.0,
    837.0,
    843.0,
    845.0,
    844.0,
    846.0,
    844.0,
    845.0,
    851.0,
    848.0,
    849.0,
    848.0,
    845.0,
    847.0,
    849.0,
    855.0,
    860.0,
    862.0,
    856.0,
    862.0,
    871.0,
    862.0,
    855.0,
    849.0,
    855.0,
    850.0,
    854.0,
    856.0,
    849.0,
    849.0,
    849.0,
    849.0,
    846.0,
    846.0,
    845.0,
    840.0,
    839.0,
    843.0,
    842.0,
    845.0,
    836.0,
    839.0,
    845.0,
    836.0,
    839.0,
    827.0,
    829.0,
    830.0,
    836.0,
    839.0,
    836.0,
    839.0,
    834.0,
    836.0,
    833.0,
    841.0,
    836.0,
    833.0,
    837.0,
    838.0,
    843.0,
    834.0,
    837.0,
    837.0,
    830.0,
    833.0,
    837.0,
    836.0,
    831.0,
    830.0,
    837.0,
    832.0,
    829.0,
    824.0,
    901.0,
    856.0,
    820.0,
    821.0,
    824.0,
    819.0,
    822.0,
    827.0,
    829.0,
    830.0,
    830.0,
    827.0,
    826.0,
    829.0,
    922.0,
    907.0,
    825.0,
    814.0,
    821.0,
    819.0,
    821.0,
    819.0,
    816.0,
    817.0,
    817.0,
    812.0,
    815.0,
    812.0,
    813.0,
    812.0,
    809.0,
    808.0,
    821.0,
    808.0,
    808.0,
    853.0,
    816.0,
    812.0,
    812.0,
    811.0,
    816.0,
    822.0,
    819.0,
    820.0,
    822.0,
    821.0,
    819.0,
    819.0,
    813.0,
    813.0,
    815.0,
    814.0,
    822.0,
    814.0,
    815.0,
    819.0,
    820.0,
    819.0,
    820.0,
    821.0,
    815.0,
    821.0,
    815.0,
    817.0,
    819.0,
    818.0,
    818.0,
    813.0,
    810.0,
    808.0,
    803.0,
    805.0,
    806.0,
    804.0,
    802.0,
    801.0,
    796.0,
    792.0,
    793.0,
    786.0,
    790.0,
    791.0,
    787.0,
    788.0,
    786.0,
    791.0,
    784.0,
    790.0,
    791.0,
    796.0,
    797.0,
    796.0,
    793.0,
    796.0,
    797.0,
    797.0,
    797.0,
    791.0,
    792.0,
    795.0,
    792.0,
    794.0,
    794.0,
    792.0,
    792.0,
    797.0,
    798.0,
    793.0,
    795.0,
    792.0,
    794.0,
    792.0,
    788.0,
    794.0,
    789.0,
    789.0,
    784.0,
    786.0,
    789.0,
    787.0,
    789.0,
    787.0,
    788.0,
    784.0,
    780.0,
    783.0,
    783.0,
    782.0,
    781.0,
    781.0,
    780.0,
    781.0,
    780.0,
    788.0,
    781.0,
    782.0,
    781.0,
    782.0,
    782.0,
    783.0,
    789.0,
    784.0,
    786.0,
    789.0,
    789.0,
    791.0,
    789.0,
    780.0,
    785.0,
    782.0,
    782.0,
    774.0,
    775.0,
    776.0,
    777.0,
    779.0,
    780.0,
    780.0,
    775.0,
    774.0,
    771.0,
    773.0,
    771.0,
    777.0,
    775.0,
    777.0,
    769.0,
    772.0,
    767.0,
    773.0,
    774.0,
    775.0,
    773.0,
    769.0,
    767.0,
    767.0,
    769.0,
    766.0,
    766.0,
    760.0,
    763.0,
    763.0,
    765.0,
    760.0,
    765.0,
    761.0,
    756.0,
    755.0,
    756.0,
    758.0,
    757.0,
    750.0,
    752.0,
    746.0,
    746.0,
    752.0,
    746.0,
    748.0,
    745.0,
    743.0,
    746.0,
    745.0,
    755.0,
    743.0,
    740.0,
    745.0,
    744.0,
    741.0,
    739.0,
    742.0,
    748.0,
    749.0,
    745.0,
    744.0,
    744.0,
    744.0,
    746.0,
    740.0,
    740.0,
    744.0,
    747.0,
    743.0,
    742.0,
    746.0,
    739.0,
    738.0,
    735.0,
    737.0,
    740.0,
    740.0,
    736.0,
    741.0,
    733.0,
    738.0,
    734.0,
    732.0,
    736.0,
    735.0,
    736.0,
    732.0,
    731.0,
    726.0,
    732.0,
    723.0,
    723.0,
    723.0,
    725.0,
    722.0,
    720.0,
    720.0,
    720.0,
    721.0,
    718.0,
    719.0,
    721.0,
    717.0,
    719.0,
    710.0,
    718.0,
    718.0,
    714.0,
    720.0,
    717.0,
    714.0,
    716.0,
    718.0,
    718.0,
    715.0,
    715.0,
    714.0,
    712.0,
    712.0,
    715.0,
    714.0,
    710.0,
    713.0,
    712.0,
    703.0,
    709.0,
    706.0,
    709.0,
    701.0,
    708.0,
    706.0,
    707.0,
    705.0,
    704.0,
    699.0,
    701.0,
    697.0,
    698.0,
    695.0,
    697.0,
    696.0,
    696.0,
    695.0,
    692.0,
    692.0,
    690.0,
    689.0,
    689.0,
    688.0,
    687.0,
    689.0,
    689.0,
    686.0,
    686.0,
    680.0,
    681.0,
    681.0,
    681.0,
    680.0,
    681.0,
    679.0,
    680.0,
    681.0,
    676.0,
    680.0,
    678.0,
    680.0,
    682.0,
    680.0,
    680.0,
    674.0,
    678.0,
    677.0,
    677.0,
    674.0,
    672.0,
    677.0,
    673.0,
    674.0,
    671.0,
    675.0,
    674.0,
    674.0,
    678.0,
    675.0,
    674.0,
    674.0,
    676.0,
    674.0,
    674.0,
    673.0,
    673.0,
    675.0,
    672.0,
    672.0,
    672.0,
    672.0,
    671.0,
    673.0,
    674.0,
    676.0,
    674.0,
    670.0,
    670.0,
    666.0,
    670.0,
    671.0,
    671.0,
    667.0,
    670.0,
    667.0,
    669.0,
    670.0,
    668.0,
    669.0,
    672.0,
    668.0,
    669.0,
    670.0,
    665.0,
    665.0,
    668.0,
    667.0,
    668.0,
    666.0,
    669.0,
    667.0,
    671.0,
    667.0,
    670.0,
    670.0,
    674.0,
    672.0,
    668.0,
    670.0,
    670.0,
    677.0,
    673.0,
    673.0,
    671.0,
    676.0,
    673.0,
    672.0,
    673.0,
    672.0,
    672.0,
    673.0,
    676.0,
    672.0,
    674.0,
    671.0,
    676.0,
    672.0,
    673.0,
    673.0,
    671.0,
    670.0,
    674.0,
    671.0,
    673.0,
    670.0,
    669.0,
    669.0,
    671.0,
    669.0,
    666.0,
    665.0,
    666.0,
    669.0,
    667.0,
    667.0,
    667.0,
    661.0,
    667.0,
    662.0,
    661.0,
    660.0,
    658.0,
    661.0,
    661.0,
    661.0,
    663.0,
    658.0,
    663.0,
    660.0,
    661.0,
    661.0,
    663.0,
    658.0,
    663.0,
    659.0,
    661.0,
    662.0,
    656.0,
    658.0,
    658.0,
    659.0,
    660.0,
    655.0,
    658.0,
    655.0,
    659.0,
    660.0,
    659.0,
    660.0,
    659.0,
    660.0,
    658.0,
    661.0,
    660.0,
    661.0,
    666.0,
    658.0,
    659.0,
    656.0,
    654.0,
    654.0,
    650.0,
    654.0,
    653.0,
    654.0,
    652.0,
    657.0,
    649.0,
    651.0,
    649.0,
    649.0,
    652.0,
    652.0,
    651.0,
    650.0,
    650.0,
    648.0,
    646.0,
    650.0,
    648.0,
    647.0,
    649.0,
    650.0,
    648.0,
    650.0,
    652.0,
    649.0,
    645.0,
    648.0,
    646.0,
    647.0,
    647.0,
    647.0,
    644.0,
    646.0,
    644.0,
    645.0,
    647.0,
    697.0,
    706.0,
    646.0,
    644.0,
    641.0,
    642.0,
    647.0,
    643.0,
    642.0,
    643.0,
    645.0,
    640.0,
    640.0,
    639.0,
    641.0,
    638.0,
    637.0,
    639.0,
    640.0,
    641.0,
    636.0,
    636.0,
    641.0,
    639.0,
    636.0,
    634.0,
    633.0,
    636.0,
    634.0,
    635.0,
    633.0,
    633.0,
    633.0,
    632.0,
    632.0,
    631.0,
    630.0,
    632.0,
    632.0,
    630.0,
    628.0,
    631.0,
    630.0,
    627.0,
    625.0,
    631.0,
    628.0,
    628.0,
    625.0,
    627.0,
    629.0,
    630.0,
    626.0,
    628.0,
    627.0,
    632.0,
    624.0,
    626.0,
    625.0,
    626.0,
    626.0,
    624.0,
    624.0,
    622.0,
    624.0,
    624.0,
    623.0,
    624.0,
    622.0,
    620.0,
    623.0,
    620.0,
    623.0,
    624.0,
    622.0,
    623.0,
    622.0,
    622.0,
    624.0,
    621.0,
    622.0,
    620.0,
    622.0,
    618.0,
    621.0,
    622.0,
    619.0,
    619.0,
    616.0,
    618.0,
    619.0,
    616.0,
    616.0,
    617.0,
    614.0,
    617.0,
    615.0,
    616.0,
    615.0,
    616.0,
    614.0,
    614.0,
    615.0,
    615.0,
    618.0,
    614.0,
    614.0,
    613.0,
    613.0,
    612.0,
    613.0,
    615.0,
    614.0,
    614.0,
    613.0,
    612.0,
    612.0,
    612.0,
    613.0,
    613.0,
    615.0,
    614.0,
    614.0,
    612.0,
    613.0,
    614.0,
    613.0,
    615.0,
    615.0,
    616.0,
    614.0,
    617.0,
    613.0,
    614.0,
    612.0,
    613.0,
    614.0,
    614.0,
    613.0,
    613.0,
    612.0,
    614.0,
    614.0,
    614.0,
    614.0,
    614.0,
    614.0,
    618.0,
    612.0,
    611.0,
    612.0,
    610.0,
    612.0,
    610.0,
    612.0,
    610.0,
    612.0,
    612.0,
    610.0,
    612.0,
    612.0,
    612.0,
    612.0,
    609.0,
    610.0,
    613.0,
    611.0,
    610.0,
    610.0,
    610.0,
    612.0,
    612.0,
    610.0,
    612.0,
    612.0,
    611.0,
    609.0,
    612.0,
    610.0,
    611.0,
    611.0,
    612.0,
    611.0,
    611.0,
    611.0,
    617.0,
    610.0,
    611.0,
    610.0,
    613.0,
    612.0,
    611.0,
    610.0,
    612.0,
    611.0,
    612.0,
    613.0,
    612.0,
    612.0,
    611.0,
    612.0,
    611.0,
    616.0,
    614.0,
    612.0,
    611.0,
    610.0,
    612.0,
    613.0,
    610.0,
    614.0,
    611.0,
    611.0,
    609.0,
    613.0,
    610.0,
    610.0,
    608.0,
    610.0,
    607.0,
    610.0,
    610.0,
    610.0,
    608.0,
    609.0,
    610.0,
    612.0,
    609.0,
    607.0,
    609.0,
    609.0,
    610.0,
    609.0,
    608.0,
    610.0,
    611.0,
    611.0,
    609.0,
    609.0,
    609.0,
    610.0,
    608.0,
    608.0,
    610.0,
    609.0,
    608.0,
    608.0,
    610.0,
    608.0,
    610.0,
    610.0,
    610.0,
    607.0,
    608.0,
    610.0,
    608.0,
    609.0,
    607.0,
    609.0,
    607.0,
    606.0,
    606.0,
    608.0,
    608.0,
    608.0,
    608.0,
    607.0,
    606.0,
    606.0,
    608.0,
    605.0,
    605.0,
    607.0,
    606.0,
    607.0,
    605.0,
    606.0,
    607.0,
    607.0,
    607.0,
    605.0,
    606.0,
    604.0,
    605.0,
    603.0,
    606.0,
    604.0,
    604.0,
    605.0,
    606.0,
    606.0,
    606.0,
    604.0,
    604.0,
    604.0,
    607.0,
    606.0,
    605.0,
    607.0,
    604.0,
    603.0,
    603.0,
    604.0,
    603.0,
    604.0,
    606.0,
    605.0,
    602.0,
    605.0,
    603.0,
    605.0,
    604.0,
    604.0,
    604.0,
    602.0,
    604.0,
    605.0,
    604.0,
    604.0,
    602.0,
    604.0,
    604.0,
    603.0,
    602.0,
    604.0,
    604.0,
    603.0,
    604.0,
    602.0,
    602.0,
    601.0,
    604.0,
    601.0,
    600.0,
    602.0,
    603.0,
    602.0,
    602.0,
    602.0,
    602.0,
    600.0,
    600.0,
    598.0,
    602.0,
    598.0,
    601.0,
    602.0,
    600.0,
    602.0,
    601.0,
    601.0,
    600.0,
    600.0,
    601.0,
    600.0,
    599.0,
    602.0,
    601.0,
    600.0,
    601.0,
    602.0,
    600.0,
    602.0,
    600.0,
    600.0,
    600.0,
    600.0,
    602.0,
    600.0,
    600.0,
    601.0,
    600.0,
    599.0,
    599.0,
    600.0,
    600.0,
    599.0,
    600.0,
    598.0,
    600.0,
    599.0,
    599.0,
    600.0,
    601.0,
    600.0,
    601.0,
    600.0,
    599.0,
    598.0,
    598.0,
    601.0,
    601.0,
    601.0,
    599.0,
    599.0,
    600.0,
    599.0,
    600.0,
    600.0,
    598.0,
    600.0,
    600.0,
    600.0,
    599.0,
    600.0,
    600.0,
    600.0,
    603.0,
    603.0,
    600.0,
    599.0,
    600.0,
    600.0,
    601.0,
    599.0,
    598.0,
    602.0,
    598.0,
    598.0,
    607.0,
    602.0,
    599.0,
    600.0,
    600.0,
    600.0,
    599.0,
    599.0,
    599.0,
    600.0,
    600.0,
    600.0,
    600.0,
    598.0,
    599.0,
    600.0,
    601.0,
    598.0,
    599.0,
    599.0,
    602.0,
    599.0,
    600.0,
    601.0,
    600.0,
    598.0,
    600.0,
    600.0,
    600.0,
    599.0,
    600.0,
    598.0,
    600.0,
    601.0,
    602.0,
    599.0,
    600.0,
    599.0,
    598.0,
    599.0,
    600.0,
    600.0,
    599.0,
    602.0,
    599.0,
    603.0,
    599.0,
    598.0,
    600.0,
    598.0,
    597.0,
    600.0,
    598.0,
    600.0,
    600.0,
    600.0,
    598.0,
    599.0,
    600.0,
    600.0,
    602.0,
    599.0,
    600.0,
    599.0,
    600.0,
    599.0,
    600.0,
    598.0,
    598.0,
    601.0,
    599.0,
    598.0,
    600.0,
    598.0,
    598.0,
    598.0,
    598.0,
    599.0,
    598.0,
    601.0,
    600.0,
    603.0,
    598.0,
    598.0,
    599.0,
    599.0,
    598.0,
    599.0,
    606.0,
    600.0,
    598.0,
    598.0,
    600.0,
    597.0,
    598.0,
    597.0,
    598.0,
    600.0,
    600.0,
    599.0,
    600.0,
    598.0,
    599.0,
    598.0,
    599.0,
    600.0,
    599.0,
    600.0,
    599.0,
    599.0,
    598.0,
    599.0,
    599.0,
    598.0,
    597.0,
    598.0,
    600.0,
    600.0,
    598.0,
    598.0,
    609.0,
    600.0,
    597.0,
    599.0,
    599.0,
    599.0,
    599.0,
    598.0,
    599.0,
    597.0,
    599.0,
    598.0,
    598.0,
    598.0,
    599.0,
    598.0,
    600.0,
    600.0,
    599.0,
    598.0,
    599.0,
    599.0,
    598.0,
    598.0,
    597.0,
    596.0,
    598.0,
    598.0,
    599.0,
    598.0,
    599.0,
    600.0,
    598.0,
    599.0,
    599.0,
    598.0,
    598.0,
    599.0,
    598.0,
    597.0,
    598.0,
    598.0,
    600.0,
    600.0,
    599.0,
    598.0,
    598.0,
    598.0,
    598.0,
    601.0,
    599.0,
    598.0,
    598.0,
    598.0,
    598.0,
    598.0,
    597.0,
    599.0,
    600.0,
    597.0,
    598.0,
    597.0,
    598.0,
    599.0,
    599.0,
    599.0,
    597.0,
    597.0,
    598.0,
    599.0,
    597.0,
    599.0,
    599.0,
    600.0,
    597.0,
    596.0,
    596.0,
    598.0,
    599.0,
    598.0,
    600.0,
    598.0,
    598.0,
    599.0,
    599.0,
    598.0,
    599.0,
    598.0,
    598.0,
    597.0,
    596.0,
    598.0,
    598.0,
    598.0,
    598.0,
    598.0,
    599.0,
    597.0,
    597.0,
    598.0,
    597.0,
    599.0,
    597.0,
    597.0,
    598.0,
    597.0,
    599.0,
    598.0,
    598.0,
    598.0,
    599.0,
    600.0,
    600.0,
    596.0,
    597.0,
    598.0,
    597.0,
    599.0,
    599.0,
    599.0,
    599.0,
    597.0,
    599.0,
    598.0,
    598.0,
    600.0,
    599.0,
    598.0,
    600.0,
    600.0,
    600.0,
    600.0,
    597.0,
    598.0,
    598.0,
    599.0,
    599.0,
    597.0,
    598.0,
    598.0,
    598.0,
    598.0,
    598.0,
    596.0,
    599.0,
    597.0,
    598.0,
    597.0,
    597.0,
    598.0,
    598.0,
    598.0,
    596.0,
    599.0,
    597.0,
    598.0,
    598.0,
    599.0,
    597.0,
    599.0,
    598.0,
    597.0,
    598.0,
    597.0,
    600.0,
    600.0,
    597.0,
    600.0,
    599.0,
    600.0,
    606.0,
    600.0,
    601.0,
    598.0,
    601.0,
    599.0,
    598.0,
    598.0,
    600.0,
    600.0,
    599.0,
    598.0,
    598.0,
    599.0,
    600.0,
    598.0,
    598.0,
    599.0,
    598.0,
    597.0,
    597.0,
    599.0,
    598.0,
    599.0,
    598.0,
    599.0,
    598.0,
    598.0,
    598.0,
    597.0,
    598.0,
    598.0,
    597.0,
    599.0,
    600.0,
    598.0,
    597.0,
    598.0,
    599.0,
    598.0,
    598.0,
    597.0,
    599.0,
    598.0,
    598.0,
    596.0,
    598.0,
    598.0,
    598.0,
    599.0,
    598.0,
    599.0,
    598.0,
    598.0,
    598.0,
    598.0,
    599.0,
    600.0,
    600.0,
    597.0,
    598.0,
    598.0,
    600.0,
    600.0,
    600.0,
    598.0,
    598.0,
    600.0,
    599.0,
    597.0,
    602.0,
    599.0,
    600.0,
    599.0,
    598.0,
    599.0,
    598.0,
    600.0,
    597.0,
    599.0,
    601.0,
    598.0,
    598.0,
    598.0,
    598.0,
    598.0,
    599.0,
    597.0,
    598.0,
    598.0,
    599.0,
    600.0,
    600.0,
    598.0,
    600.0,
    596.0,
    599.0,
    598.0,
    598.0,
    598.0,
    598.0,
    598.0,
    598.0,
    598.0,
    597.0,
    597.0,
    597.0,
    598.0,
    598.0,
    598.0,
    599.0,
    597.0,
    598.0,
    599.0,
    598.0,
    598.0,
    599.0,
    599.0,
    597.0,
    599.0,
    599.0,
    598.0,
    598.0,
    600.0,
    598.0,
    598.0,
    598.0,
    599.0,
    598.0,
    598.0,
    600.0,
    600.0,
    598.0,
    599.0,
    598.0,
    600.0,
    600.0,
    598.0,
    597.0,
    599.0,
    601.0,
    598.0,
    600.0,
    598.0,
    599.0,
    599.0,
    599.0,
    599.0,
    600.0,
    598.0,
    598.0,
    602.0,
    600.0,
    598.0,
    598.0,
    599.0,
    600.0,
    600.0,
    600.0,
    598.0,
    598.0,
    600.0,
    597.0,
    598.0,
    598.0,
    600.0,
    600.0,
    601.0,
    597.0,
    600.0,
    599.0,
    598.0,
    597.0,
    598.0,
    598.0,
    600.0,
    599.0,
    598.0,
    598.0,
    599.0,
    598.0,
    599.0,
    600.0,
    599.0,
    599.0,
    599.0,
    597.0,
    607.0,
    599.0,
    600.0,
    598.0,
    601.0,
    598.0,
    600.0,
    600.0,
    599.0,
    599.0,
    598.0,
    596.0,
    600.0,
    599.0,
    601.0,
    600.0,
    600.0,
    597.0,
    597.0,
    599.0,
    601.0,
    598.0,
    599.0,
    598.0,
    598.0,
    597.0,
    598.0,
    598.0,
    597.0,
    600.0,
    601.0,
    600.0,
    600.0,
    598.0,
    598.0,
    599.0,
    598.0,
    599.0,
    598.0,
    599.0,
    597.0,
    598.0,
    601.0,
    600.0,
    598.0,
    600.0,
    597.0,
    598.0,
    600.0,
    600.0,
    598.0,
    598.0,
    600.0,
    601.0,
    599.0,
    599.0,
    599.0,
    598.0,
    600.0,
    599.0,
    599.0,
    599.0,
    600.0,
    600.0,
    598.0,
    599.0,
    598.0,
    601.0,
    599.0,
    600.0,
    600.0,
    599.0,
    599.0,
    600.0,
    601.0,
    607.0,
    599.0,
    597.0,
    599.0,
    598.0,
    598.0,
    598.0,
    597.0,
    599.0,
    600.0,
    599.0,
    599.0,
    597.0,
    600.0,
    599.0,
    599.0,
    598.0,
    601.0,
    603.0,
    599.0,
    599.0,
    598.0,
    600.0,
    598.0,
    600.0,
    598.0,
    598.0,
    600.0,
    597.0,
    599.0,
    601.0,
    600.0,
    597.0,
    602.0,
    598.0,
    600.0,
    598.0,
    599.0,
    598.0,
    598.0,
    597.0,
    599.0,
    598.0,
    597.0,
    600.0,
    598.0,
    599.0,
    598.0,
    599.0,
    599.0,
    599.0,
    599.0,
    601.0,
    602.0,
    600.0,
    599.0,
    600.0,
    600.0,
    599.0,
    599.0,
    598.0,
    600.0,
    600.0,
    599.0,
    598.0,
    602.0,
    598.0,
    600.0,
    600.0,
    598.0,
    599.0,
    600.0,
    600.0,
    598.0,
    598.0,
    599.0,
    598.0,
    599.0,
    598.0,
    598.0,
    599.0,
    600.0,
    598.0,
    598.0,
    601.0,
    602.0,
    600.0,
    600.0,
    602.0,
    600.0,
    600.0,
    600.0,
    598.0,
    600.0,
    600.0,
    600.0,
    600.0,
    602.0,
    605.0,
    600.0,
    599.0,
    598.0,
    602.0,
    599.0,
    600.0,
    600.0,
    600.0,
    598.0,
    599.0,
    600.0,
    600.0,
    600.0,
    600.0,
    598.0,
    599.0,
    598.0,
    598.0,
    600.0,
    599.0,
    599.0,
    600.0,
    601.0,
    600.0,
    598.0,
    600.0,
    599.0,
    597.0,
    599.0,
    600.0,
    600.0,
    600.0,
    597.0,
    599.0,
    596.0,
    598.0,
    599.0,
    599.0,
    600.0,
    598.0,
    600.0,
    597.0,
    599.0,
    599.0,
    598.0,
    600.0,
    598.0,
    600.0,
    601.0,
    598.0,
    599.0,
    600.0,
    598.0,
    598.0,
    600.0,
    599.0,
    599.0,
    599.0,
    599.0,
    598.0,
    599.0,
    598.0,
    598.0,
    598.0,
    598.0,
    599.0,
    599.0,
    600.0,
    599.0,
    599.0,
    597.0,
    599.0,
    598.0,
    597.0,
    599.0,
    601.0,
    600.0,
    600.0,
    599.0,
    598.0,
    599.0,
    600.0,
    602.0,
    600.0,
    599.0,
    600.0,
    599.0,
    599.0,
    599.0,
    600.0,
    599.0,
    602.0,
    598.0,
    599.0,
    598.0,
    598.0,
    600.0,
    600.0,
    600.0,
    598.0,
    600.0,
    598.0,
    598.0,
    600.0,
    597.0,
    598.0,
    599.0,
    598.0,
    598.0,
    599.0,
    598.0,
    607.0,
    600.0,
    599.0,
    724.0,
    611.0,
    600.0,
    600.0,
    598.0,
    600.0,
    598.0,
    598.0,
    600.0,
    596.0,
    597.0,
    599.0,
    598.0,
    598.0,
    599.0,
    603.0,
    600.0,
    598.0,
    597.0,
    599.0,
    599.0,
    597.0,
    599.0,
    598.0,
    599.0,
    600.0,
    597.0,
    620.0,
    650.0,
    598.0,
    598.0,
    597.0,
    598.0,
    598.0,
    598.0,
    598.0,
    598.0,
    598.0,
    598.0,
    599.0,
    598.0,
    597.0,
    600.0,
    598.0,
    599.0,
    600.0,
    598.0,
    599.0,
    598.0,
    597.0,
    598.0,
    600.0,
    599.0,
    599.0,
    600.0,
    600.0,
    600.0,
    599.0,
    598.0,
    599.0,
    598.0,
    599.0,
    600.0,
    598.0,
    599.0,
    599.0,
    600.0,
    598.0,
    598.0,
    598.0,
    598.0,
    598.0,
    598.0,
    599.0,
    600.0,
    598.0,
    598.0,
    600.0,
    599.0,
    600.0,
    597.0,
    598.0,
    598.0,
    598.0,
    598.0,
    598.0,
    598.0,
    598.0,
    598.0,
    600.0,
    599.0,
    599.0,
    599.0,
    600.0,
    598.0,
    598.0,
    600.0,
    600.0,
    599.0,
    598.0,
    597.0,
    597.0,
    598.0,
    600.0,
    598.0,
    598.0,
    596.0,
    598.0,
    598.0,
    598.0,
    598.0,
    598.0,
    598.0,
    599.0,
    597.0,
    599.0,
    597.0,
    599.0,
    597.0,
    598.0,
    598.0,
    599.0,
    597.0,
    599.0,
    598.0,
    600.0,
    599.0,
    598.0,
    598.0,
    599.0,
    596.0,
    598.0,
    598.0,
    597.0,
    599.0,
    597.0,
    599.0,
    598.0,
    598.0,
    598.0,
    599.0,
    597.0,
    598.0,
    598.0,
    597.0,
    600.0,
    600.0,
    599.0,
    599.0,
    596.0,
    598.0,
    598.0,
    597.0,
    598.0,
    599.0,
    599.0,
    598.0,
    599.0,
    598.0,
    599.0,
    598.0,
    599.0,
    600.0,
    598.0,
    599.0,
    600.0,
    599.0,
    600.0,
    599.0,
    600.0,
    598.0,
    598.0,
    598.0,
    598.0,
    597.0,
    600.0,
    598.0,
    600.0,
    598.0,
    599.0,
    598.0,
    599.0,
    597.0,
    598.0,
    597.0,
    600.0,
    599.0,
    600.0,
    600.0,
    600.0,
    598.0,
    600.0,
    598.0,
    597.0,
    600.0,
    597.0,
    598.0,
    597.0,
    599.0,
    597.0,
    598.0,
    598.0,
    598.0,
    599.0,
    598.0,
    599.0,
    598.0,
    597.0,
    596.0,
    600.0,
    599.0,
    599.0,
    599.0,
    598.0,
    598.0,
    597.0,
    598.0,
    596.0,
    597.0,
    598.0,
    599.0,
    599.0,
    598.0,
    598.0,
    598.0,
    598.0,
    598.0,
    599.0,
    598.0,
    600.0,
    599.0,
    598.0,
    598.0,
    598.0,
    597.0,
    598.0,
    598.0,
    602.0,
    602.0,
    599.0,
    598.0,
    597.0,
    599.0,
    597.0,
    596.0,
    599.0,
    599.0,
    599.0,
    598.0,
    604.0,
    598.0,
    598.0,
    598.0,
    598.0,
    599.0,
    598.0,
    598.0,
    599.0,
    600.0,
    598.0,
    598.0,
    599.0,
    599.0,
    597.0,
    598.0,
    598.0
  ],
  "nv_sig": "",
  "config": {
    "CommonDurations": {
      "cw_meas_buffer": 5000,
      "pol_to_uwave_wait_dur": 5000,
      "scc_ion_readout_buffer": 10000,
      "space_opti_interval_m": 4,
      "uwave_buffer": 1000,
      "uwave_to_readout_wait_dur": 5000
    },
    "DeviceIDs": {
      "arb_wave_gen_visa_address": "TCPIP0::128.104.160.119::5025::SOCKET",
      "daq0_name": "Dev1",
      "filter_slider_ell9k_2_address": "COM11",
      "filter_slider_ell9k_3_address": "COM9",
      "filter_slider_ell9k_address": "COM5",
      "gcs_dll_path": "C:\\Users\\kolkowitz\\Documents\\GitHub\\kolkowitz-nv-experiment-v1.0\\servers\\outputs\\GCSTranslator\\PI_GCS2_DLL_x64.dll",
      "objective_piezo_model": "E709",
      "objective_piezo_serial": "0119008970",
      "piezo_stage_626_2cd_model": "E727",
      "piezo_stage_626_2cd_serial": "0116058375",
      "pulse_gen_SWAB_82_ip": "128.104.160.111",
      "rotation_stage_ell18k_address": "COM6",
      "sig_gen_BERK_bnc835_visa": "TCPIP::128.104.160.114::inst0::INSTR",
      "sig_gen_STAN_sg394_visa": "TCPIP::128.104.160.118::inst0::INSTR",
      "sig_gen_TEKT_tsg4104a_visa": "TCPIP0::128.104.160.112::5025::SOCKET",
      "tagger_SWAB_20_serial": "1740000JEH",
      "temp_ctrl_tc200": "COM10",
      "z_piezo_kpz101_serial": "29502179"
    },
    "Microwaves": {
      "sig_gen_BERK_bnc835": {
        "delay": 151,
        "fm_mod_bandwidth": 100000.0
      },
      "sig_gen_STAN_sg394": {
        "delay": 104,
        "fm_mod_bandwidth": 100000.0
      },
      "sig_gen_TEKT_tsg4104a": {
        "delay": 57
      },
      "iq_comp_amp": 0.5,
      "iq_delay": 630,
      "uwave_amplifiers": 56
    },
    "Optics": {
      "cobolt_515": {
        "am_feedthrough": "False",
        "delay": 120,
        "mod_type": "ModTypes.DIGITAL",
        "wavelength": 515
      },
      "cobolt_638": {
        "am_feedthrough": "False",
        "delay": 80,
        "logic_level_shifting_board": "True",
        "mod_type": "ModTypes.DIGITAL",
        "wavelength": 638
      },
      "collection": {
        "FilterMapping": {
          "715_lp": 2,
          "715_sp+630_lp": 0,
          "740_bp": 1,
          "no_filter": 3
        },
        "filter_server": "filter_slider_ell9k_3"
      },
      "integrated_520": {
        "am_feedthrough": "False",
        "delay": 250,
        "logic_level_shifting_board": "True",
        "mod_type": "ModTypes.DIGITAL",
        "nd_filter": 1.5,
        "wavelength": 520
      },
      "laser_LGLO_589": {
        "FilterMapping": {
          "nd_0": 0,
          "nd_0.5": 1,
          "nd_1.0": 2,
          "nd_1.5": 3
        },
        "am_feedthrough": "True",
        "delay": 2500,
        "filter_server": "filter_slider_ell9k",
        "mod_type": "ModTypes.DIGITAL",
        "true_zero_voltage_daq": 0.0,
        "wavelength": 589
      },
      "laserglow_532": {
        "FilterMapping": {
          "nd_0": 3,
          "nd_0.5": 2,
          "nd_1.0": 1,
          "nd_2.0": 0
        },
        "am_feedthrough": "False",
        "delay": 1030,
        "filter_server": "filter_slider_ell9k_2",
        "mod_type": "ModTypes.DIGITAL",
        "wavelength": 532
      }
    },
    "Positioning": {
      "daq_voltage_range_factor": 5.0,
      "piezo_stage_scaling_gain": 2.5,
      "piezo_stage_scaling_offset": 250,
      "piezo_stage_voltage_range_factor": 5.0,
      "xy_control_style": "ControlStyle.STREAM",
      "xy_dtype": "float",
      "xy_incremental_step_size": 0.002,
      "xy_large_response_delay": 2000000,
      "xy_nm_per_unit": 35000,
      "xy_optimize_range": 0.012,
      "xy_positional_accuracy": 0.002,
      "xy_small_response_delay": 500000,
      "xy_timeout": 1,
      "xy_units": "V",
      "z_control_style": "ControlStyle.STREAM",
      "z_delay": 500000,
      "z_dtype": "float",
      "z_hysteresis_a": 0.06,
      "z_hysteresis_b": 0.9,
      "z_hysteresis_linearity": 0.98,
      "z_incremental_step_size": 0.0125,
      "z_nm_per_unit": 16000,
      "z_optimize_range": 0.2,
      "z_units": "V"
    },
    "Servers": {
      "arb_wave_gen": "awg_KEYS_33622A",
      "charge_readout_laser": "laser_LGLO_589",
      "counter": "tagger_SWAB_20",
      "magnet_rotation": "rotation_stage_thor_ell18k",
      "pos_xy": "pos_xyz_THOR_gvs212_PI_pifoc",
      "pos_xyz": "pos_xyz_THOR_gvs212_PI_pifoc",
      "pos_z": "pos_xyz_THOR_gvs212_PI_pifoc",
      "pulse_gen": "pulse_gen_SWAB_82",
      "sig_gen_HIGH": "sig_gen_STAN_sg394",
      "sig_gen_LOW": "sig_gen_BERK_bnc835",
      "sig_gen_omni": "sig_gen_BERK_bnc835",
      "sig_gen_single": "sig_gen_STAN_sg394",
      "tagger": "tagger_SWAB_20"
    },
    "Wiring": {
      "Daq": {
        "ai_photodiode": "Dev1/AI0",
        "ai_thermistor_ref": "dev1/AI1",
        "ao_galvo_x": "dev1/AO0",
        "ao_galvo_y": "dev1/AO1",
        "ao_laser_LGLO_589_feedthrough": "dev1/AO3",
        "ao_objective_piezo": "dev1/AO2",
        "ao_piezo_stage_626_2cd_x": "dev1/AO0",
        "ao_piezo_stage_626_2cd_y": "dev1/AO1",
        "ao_uwave_sig_gen_mod": "",
        "ao_z_piezo_kpz101": "dev1/AO2",
        "di_clock": "PFI12",
        "di_laser_LGLO_589_feedthrough": "PFI0"
      },
      "Piezo_stage_E727": {
        "piezo_stage_channel_x": 4,
        "piezo_stage_channel_y": 5
      },
      "PulseGen": {
        "ao_fm_sig_gen_BERK_bnc835": 1,
        "ao_fm_sig_gen_STAN_sg394": 0,
        "ao_laser_LGLO_589_am": 1,
        "do_apd_gate": 5,
        "do_arb_wave_trigger": 2,
        "do_cobolt_638_dm": 7,
        "do_integrated_520_dm": 3,
        "do_laser_LGLO_589_am": 6,
        "do_sample_clock": 0,
        "do_sig_gen_BERK_bnc835_gate": 1,
        "do_sig_gen_STAN_sg394_gate": 4
      },
      "Tagger": {
        "di_apd_0": 2,
        "di_apd_1": 4,
        "di_apd_gate": 3,
        "di_clock": 1
      }
    },
    "apd_indices": [
      1
    ],
    "nv_sig_units": "{'coords': 'V', 'expected_count_rate': 'kcps', 'durations': 'ns', 'magnet_angle': 'deg', 'resonance': 'GHz', 'rabi': 'ns', 'uwave_power': 'dBm'}"
  }
}